#index kx_value ky_value E0(k)  E1(k)   E2(k) .....
0  0  0   3  -3  0  -1.64118  -33.1456  -33.1457  -39.0645  -39.0648  -59.0149  -68.2701  -68.2707  -72.7565  -72.7576  -82.0951  -87.7339  -100.544  -102.456  -102.456  -119.828  -119.828  -125.874  -131.517  -138.5  -138.504  -140.835  -140.84  -141.337  -162.26  -162.275  -169.298  -169.328  -179.122  -186.807  -199.537  -203.733  -203.763  -209.952  -210.121  -212.998  -213.457  -213.55  -214.126  -229.413  -229.452  -239.089  -246.758  -252.658  -252.762  -253.312  -253.328  -257.281  -284.668  -284.867  -286.042  -286.355  -298.029  -308.576  -310.133  -310.461  -310.663  -311.728  -312.161  -312.795  -318.607  -333.113  -333.115  -344.377  -344.934  -345.289  -346.063  -350.162  -351.034  -358.078  -359.7  -383.385  -383.476  -388.006  -390.201  -392.429  -396.295  -397.788  -422.939  -427.501  -430.182  -433.109  -434.283  -435.62  -435.833  -437.431  -443.029  -448.6  -465.148  -469.14  -472.341  -473.037  -473.762  -485.403  -492.644  -498.314  -505.285  -516.703  -518.801  -522.391  -527.767  -531.269  -548.797  -576.681  -578.848  -580.402  -580.691  -581.704  -582.712  -602.909  -612.274  -623.329  -632.12  -632.857  -653.496  -663.327  -665.065  -686.76  -695.729  -727.243  -749.574  -753.953  -758.839  -767.899  -783.012  -813.991  -829.658  -876.777  -888.721  -911.294  -942.222  -959.88  -981.979  -1043.25  -1044.51  -1084.49  -1160.18  -1217.35  -1222.87  -1280.72  -1410.36  -1493.97  -1716.1  
1  0  0.00861582   2.73205  -2.73205  -0.066906  -1.56049  -33.0457  -33.3496  -38.8424  -39.2751  -59.2858  -66.8692  -66.9428  -74.052  -74.1524  -81.8708  -88.4636  -100.733  -102.279  -102.583  -117.39  -120.045  -126.916  -128.35  -134.709  -139.43  -141.331  -144.899  -146.016  -160.082  -160.862  -170.655  -171.326  -180.484  -185.701  -195.767  -200.173  -201.181  -206.404  -207.668  -209.395  -217.28  -219.469  -225.555  -227.157  -230.211  -239.407  -240.386  -247.486  -254.524  -255.22  -260.938  -262.743  -278.252  -279.826  -288.872  -290.864  -293.018  -300.63  -302.045  -303.246  -313.09  -315.038  -319.643  -320.178  -326.499  -330.581  -333.043  -334.39  -338.609  -341.795  -353.162  -354.601  -358.363  -360.366  -368.903  -372.853  -377.196  -386.507  -388.977  -396.353  -400.135  -412.095  -414.122  -415.254  -417.072  -423.443  -434.842  -437.993  -443.879  -446.853  -447.712  -451.172  -454.399  -461.41  -463.152  -480.485  -482.831  -483.937  -486.733  -494.463  -502  -511.678  -518.377  -529.834  -532.29  -537.512  -544.227  -558.462  -567.254  -569.32  -587.147  -591.238  -594.489  -599.331  -612.027  -615.645  -636.591  -640.462  -642.975  -644.506  -668.096  -683.523  -699.664  -734.609  -740.904  -741.877  -760.113  -768.252  -769.209  -815.106  -829.111  -873.046  -892.128  -898.123  -925.424  -965.399  -977.014  -1026.52  -1061.67  -1068.38  -1141.58  -1198.88  -1241.8  -1262.41  -1389.96  -1473.68  -1693.94  
2  0  0.0172316   2  -2  -0.252381  -1.34408  -32.8055  -33.9387  -38.1829  -39.8074  -60.0453  -64.792  -64.8796  -75.706  -76.1995  -81.602  -90.5961  -99.9073  -102.144  -103.42  -113.68  -120.45  -123.769  -128.555  -130.109  -142.273  -142.777  -149.033  -152.758  -157.215  -160.715  -171.495  -174.84  -180.621  -183.525  -188.297  -195.645  -197.834  -203.105  -207.994  -209.059  -219.869  -226.025  -226.72  -229.655  -233.202  -240.217  -242.103  -242.914  -255.945  -259.646  -266.719  -271.099  -272.681  -274.921  -279.911  -288.889  -291.61  -293.687  -297.509  -307.293  -308.745  -313.088  -321.003  -326.56  -328.904  -329.066  -331.474  -332.927  -341.089  -350.529  -354.815  -358.426  -363.145  -364.058  -367.289  -372.143  -379.943  -387.887  -390.533  -392.927  -403.349  -404.701  -408.61  -409.894  -413.536  -428.45  -430.126  -433.769  -442.061  -446.247  -451.148  -454.467  -458.084  -458.742  -474.494  -478.878  -483.579  -485.692  -486.691  -492.304  -494.857  -514.313  -525.721  -529.99  -538.667  -541.703  -543.297  -554.36  -559.947  -562.804  -586.616  -592.282  -595.321  -600.007  -607.93  -623.25  -628.414  -631.274  -650.466  -653.028  -671.855  -677.143  -712.74  -719.813  -723.093  -753.504  -756.044  -756.44  -784.93  -801.29  -844.762  -856.376  -887.762  -908.395  -908.933  -949.419  -994.703  -1009.98  -1053.71  -1079.55  -1123.43  -1180.95  -1245.02  -1261.37  -1370.11  -1454.11  -1672.42  
3  0  0.0258474   1  -1  -0.51237  -1.05747  -32.564  -34.849  -37.1603  -40.3794  -61.1201  -63.2214  -63.2913  -76.6161  -77.1041  -82.1155  -93.5281  -98.2985  -99.9666  -106.197  -111.534  -120.492  -120.527  -126.358  -130.066  -143.633  -146.092  -150.222  -154.793  -157.329  -167.237  -170.497  -172.419  -177.419  -182.708  -190.056  -190.409  -194.927  -200.504  -204.55  -212.34  -220.272  -227.619  -228.766  -233.097  -233.265  -236.232  -246.119  -255.663  -257.536  -257.944  -263.838  -267.989  -272.277  -274.316  -282.776  -284.867  -289.62  -291.183  -294.332  -299.279  -309.543  -316.795  -318.769  -323.228  -324.513  -335.344  -337.912  -339.069  -339.608  -351.959  -358.292  -360.677  -370.495  -370.729  -371.435  -372.522  -373.884  -381.557  -384.899  -399.179  -403.698  -407.777  -409.527  -411.744  -413.659  -418.475  -423.404  -432.565  -437.582  -453.228  -456.679  -458.736  -464.164  -469.017  -470.155  -473.69  -475.307  -489.298  -500.166  -504.538  -506.09  -513.015  -514.702  -521.46  -541.6  -547.96  -552.903  -555.361  -557.25  -573.756  -574.369  -578.341  -603.715  -604.619  -608.55  -616.459  -621.83  -648.747  -659.316  -662.559  -664.947  -689.873  -704.739  -705.518  -726.101  -739.843  -753.386  -772.552  -788.156  -801.115  -839.699  -860.953  -879.254  -892.767  -925.568  -934.028  -993.743  -1012.95  -1040.39  -1098.14  -1105.74  -1163.56  -1228.53  -1281.58  -1350.81  -1435.25  -1651.52  
4  0  0.0344633   0  -0  -0.780491  -0.780545  -32.4616  -35.9731  -35.9731  -40.63  -61.9821  -62.5231  -62.5244  -76.9968  -76.998  -82.6834  -95.3801  -97.7837  -97.7878  -109.397  -109.4  -119.851  -119.857  -124.853  -130.725  -144.695  -148.314  -148.359  -157.323  -157.336  -165.972  -171.345  -171.414  -178.823  -186.285  -186.411  -186.689  -196.861  -199.944  -199.991  -217.839  -218.112  -227.518  -227.603  -231.464  -239.455  -241.96  -242.292  -249.396  -256.117  -264.419  -264.857  -274.344  -274.828  -276.267  -277.703  -277.88  -283.374  -291.864  -292.869  -307.243  -311.343  -315.215  -316.378  -320.003  -325.049  -327.782  -348.19  -348.552  -349.409  -350.615  -353.43  -356.657  -359.306  -364.609  -378.636  -381.753  -384.17  -388.395  -389.827  -390.771  -393.419  -400.666  -412.09  -421.785  -422.89  -424.722  -428.426  -429.487  -431.689  -440.863  -460.835  -463.615  -467.056  -473.487  -479.172  -481.948  -482.522  -497.146  -499.189  -506.055  -516.243  -517.371  -517.942  -521.374  -529.019  -551.635  -557.397  -562.207  -563.063  -567.948  -569.634  -585.956  -596.838  -604.822  -614.282  -617.959  -636.091  -652.989  -665.282  -667.675  -680.003  -687.987  -690.971  -705.987  -726.442  -739.887  -751.558  -775.617  -790.294  -817.764  -823.631  -871.96  -877.03  -877.696  -919.207  -943.634  -977.914  -1028.3  -1031.75  -1088.51  -1117.44  -1146.72  -1212.92  -1302.42  -1332.07  -1417.1  -1631.26  
5  0.00746152  0.0301554   0.732051  -0.732051  -0.583401  -0.9823  -32.5622  -34.9195  -37.1049  -40.3953  -61.6491  -62.4648  -63.2308  -76.8484  -77.1509  -82.0815  -94.6622  -97.6082  -99.6532  -106.67  -110.633  -119.972  -120.954  -126.487  -130.192  -141.59  -148.063  -150.424  -153.398  -160.754  -168.192  -170.01  -171.485  -177.54  -181.753  -183.453  -195.873  -196.167  -200.47  -203.792  -213.573  -218.043  -224.731  -226.634  -232.042  -235.442  -245.006  -249.581  -250.397  -254.658  -262.069  -264.578  -266.205  -268.489  -270.93  -283.226  -287.872  -290.441  -292.757  -295.317  -300.866  -304.061  -307.797  -320.313  -327.015  -329.322  -332.503  -332.753  -341.595  -346.402  -349.351  -358.124  -360.319  -362.422  -366.04  -378.216  -379.335  -380.363  -382.248  -383.962  -393.423  -394.661  -399.097  -404.08  -411.687  -415.536  -418.389  -426.089  -431.771  -437.728  -447.33  -449.882  -453.723  -458.695  -463.267  -473.815  -480.272  -487.216  -492.786  -493.627  -494.925  -506.593  -510.28  -516.606  -527.892  -532.14  -537.176  -540.082  -549.513  -558.89  -565.263  -578.025  -586.609  -587.976  -591.923  -594.691  -631.264  -637.396  -643.475  -649.38  -671.426  -676.455  -680.491  -684.479  -692.224  -711.138  -729.45  -753.187  -759.601  -799.666  -811.254  -832.426  -850.828  -860.166  -891.984  -901.542  -956.649  -961.385  -1008.01  -1047.94  -1069.36  -1127.36  -1133.04  -1192.29  -1310.73  -1320.1  -1395.24  -1607.85  
6  0.014923  0.0258474   1  -1  -0.512372  -1.0574  -32.6935  -34.4385  -37.6984  -40.1007  -61.5092  -62.5654  -63.549  -76.8605  -77.1971  -81.4777  -94.2471  -98.1913  -100.616  -105.21  -110.386  -120.293  -121.718  -129.315  -129.646  -137.57  -148.868  -151.568  -151.712  -162.474  -168.788  -169.359  -172.64  -176.742  -179.038  -181.795  -195.373  -199.073  -206.101  -209.43  -212.167  -212.446  -215.884  -226.567  -233.325  -241.44  -244.058  -249.214  -256.642  -257.742  -258.035  -258.346  -262.207  -264.486  -273.011  -284.585  -291.555  -292.817  -294.313  -296.817  -299.605  -302.791  -310.398  -312.005  -321.676  -330.349  -334.442  -336.566  -342.24  -344.882  -346.556  -350.467  -365.032  -368.641  -369.744  -370.616  -371.944  -379.158  -381.07  -386.665  -391.851  -397.486  -401.961  -402.932  -407.849  -408.694  -413.878  -424.701  -431.548  -436.266  -442.758  -446.238  -448.039  -453.239  -458.015  -463.08  -471.881  -485.052  -488.204  -495.278  -501.531  -504.39  -504.537  -512.983  -517.943  -522.471  -536.889  -539.306  -545.424  -549.574  -568.899  -572.107  -578.786  -584.531  -590.087  -596.543  -620.375  -624.501  -645.386  -662.178  -663.011  -663.224  -674.655  -676.95  -696.288  -705.02  -708.17  -744.189  -766.883  -799.53  -810.3  -830.907  -843.688  -847.559  -884.447  -906.816  -945.285  -970.56  -988.949  -1050.67  -1064.69  -1108.55  -1149.34  -1172.56  -1289.94  -1338.42  -1374.09  -1585.06  
7  0.0124359  0.0215395   1.23931  -1.23931  -0.449419  -1.1251  -32.7206  -34.3209  -37.8207  -40.0322  -61.0388  -63.1592  -63.7658  -76.7047  -77.0357  -81.4565  -93.27  -99.0134  -100.665  -104.938  -110.858  -120.835  -121.544  -129.431  -129.782  -137.587  -148.885  -149.798  -153.238  -161.206  -164.129  -172.755  -173.19  -178.277  -179.626  -182.38  -193.38  -200.943  -205.229  -210.197  -211.757  -212.211  -216.754  -227.378  -232.849  -242.038  -243.291  -249.008  -249.732  -250.399  -262.91  -264.112  -265.273  -266.272  -273.453  -282.152  -285.646  -292.172  -295.351  -301.61  -302.442  -304.159  -310.416  -312.016  -319.9  -329.824  -330.885  -338.132  -343.984  -345.492  -349.547  -350.513  -358.375  -360.213  -365.922  -376.781  -378.597  -380.901  -383.228  -387.898  -392.579  -394.091  -397.684  -398.279  -409.694  -412.691  -418.986  -427.921  -432.362  -436.075  -437.487  -443.215  -447.693  -452.682  -463.253  -467.69  -471.986  -480.504  -490.606  -492.402  -493.884  -496.419  -516.608  -518.333  -522.386  -527.135  -530.44  -538.048  -542.955  -548.986  -568.003  -574.211  -578.764  -582.558  -590.648  -605.733  -624.928  -634.504  -634.9  -648.926  -659.407  -663.642  -676.342  -688.543  -690.861  -710.21  -716.885  -753.092  -757.866  -795.686  -814.244  -831.477  -843.214  -859.667  -890.832  -900.179  -954.316  -961.196  -1004.12  -1046.71  -1068.44  -1126.18  -1131.31  -1189.98  -1309.5  -1318.63  -1393.52  -1606.37  
8  0.00994869  0.0172316   1.73205  -1.73205  -0.321258  -1.26627  -32.7968  -34.0347  -38.1198  -39.8447  -60.3749  -64.1933  -64.3929  -76.2313  -76.5123  -81.4617  -91.5337  -100.31  -100.779  -104.256  -112.233  -121.01  -122.492  -128.85  -131.019  -137.637  -147.842  -148.498  -153.895  -159.217  -160.051  -172.646  -174.131  -181.369  -182.105  -184.633  -191.089  -203.435  -203.747  -210.577  -211.418  -211.9  -218.992  -229.226  -232.295  -240.276  -240.65  -243.609  -245.505  -249.481  -263.01  -264.674  -271.699  -274.615  -275.596  -277.513  -279.368  -291.148  -295.101  -305.104  -307.932  -310.522  -310.705  -312.094  -316.171  -325.108  -330.653  -338.583  -344.594  -348.515  -349.567  -350.454  -351.566  -355.94  -362.089  -373.335  -382.307  -384.526  -388.063  -388.335  -391.216  -392.428  -396.81  -400.192  -405.982  -422.377  -426.889  -429.355  -430.437  -433.655  -435.998  -438.014  -447.657  -462.544  -464.661  -471.251  -472.147  -477.591  -480.531  -482.25  -494.783  -505.85  -515.146  -518.475  -529.062  -529.371  -531.593  -537.678  -540.585  -560.058  -561.288  -566.235  -573.328  -592.754  -602.787  -615.827  -623.837  -628.68  -635.014  -646.13  -650.282  -657.1  -676.917  -690.663  -702.672  -724.151  -726.154  -739.481  -771.769  -781.375  -815.587  -829.072  -855.905  -875.054  -875.826  -916.121  -938.316  -977.278  -1019.58  -1028.94  -1086.41  -1113.51  -1144.01  -1207.64  -1299.05  -1329.27  -1413.17  -1627.89  
9  0.00746152  0.0129237   2.23607  -2.23607  -0.192118  -1.41322  -32.9059  -33.7001  -38.4725  -39.5876  -59.8051  -65.3606  -65.373  -75.44  -75.6066  -81.5868  -89.9233  -100.865  -101.322  -103.456  -114.321  -120.535  -124.805  -128.046  -132.737  -137.732  -145.826  -146.872  -151.491  -158.695  -159.202  -172.171  -173.05  -182.37  -183.946  -189.628  -192.118  -202.46  -205.446  -209.122  -211.44  -212.541  -221.989  -229.306  -233.595  -233.926  -234.804  -241.057  -247.074  -249.676  -261.325  -264.667  -270.398  -275.064  -276.067  -283.161  -283.674  -290.543  -293.95  -307.382  -308.065  -311.514  -312.483  -317.192  -318.17  -321.439  -331.663  -336.781  -339.675  -341.456  -344.822  -350.26  -356.501  -358.996  -363.347  -370.667  -373.091  -378.347  -385.696  -391.375  -397.015  -399.713  -402.227  -404.331  -407.891  -418.063  -424.204  -429.834  -433.48  -436.235  -440.045  -442.502  -449.749  -461.405  -466.68  -468.868  -471.9  -473.479  -474.585  -486.99  -496.844  -503.356  -516.173  -517.21  -523.499  -530.649  -541.655  -544.34  -549.181  -549.79  -555.921  -573.321  -574.481  -602.73  -613.273  -615.166  -621.289  -626.807  -631.581  -637.772  -654.681  -659.049  -663.19  -705.148  -716.967  -726.045  -735.191  -738.919  -767.37  -785.898  -799.889  -843.974  -859.481  -869.019  -892.163  -922.562  -932.272  -993.526  -1011.37  -1035.35  -1095.93  -1104.56  -1162.04  -1225.54  -1279.68  -1349.24  -1433.04  -1649.63  
10  0.00497434  0.00861582   2.64575  -2.64575  -0.0885554  -1.53467  -33.0218  -33.4081  -38.783  -39.328  -59.3745  -66.5451  -66.6133  -74.3905  -74.4412  -81.8075  -88.7088  -100.816  -101.977  -102.833  -116.732  -120.148  -127.152  -127.556  -134.729  -137.906  -143.817  -144.309  -147.363  -159.768  -160.356  -171.268  -171.462  -180.923  -185.358  -195.256  -196.586  -201.723  -207.047  -207.765  -211.198  -213.203  -224.056  -225.357  -227.83  -230.259  -238.748  -239.698  -249.183  -250.108  -259.271  -260.994  -264.295  -277.198  -278.566  -289.794  -290.481  -292.113  -293.418  -303.459  -309.504  -311.709  -313.52  -315.806  -325.426  -326.975  -329.039  -330.81  -333.515  -337.681  -344.996  -350.386  -357.37  -359.964  -363.752  -368.905  -370.405  -372.582  -385.679  -390.024  -397.029  -406.978  -407.765  -412.409  -412.984  -415.13  -416.07  -430.173  -436.015  -442.587  -444.459  -450.697  -451.723  -456.843  -457.985  -462.478  -472.386  -474.434  -483.63  -491.722  -492.893  -502.369  -511.479  -521.406  -526.204  -528.067  -539.158  -545.891  -554.384  -554.991  -559.289  -575.651  -586.446  -602.59  -607.77  -612.767  -625.476  -627.734  -633.123  -638.769  -649.682  -656.157  -670.6  -712.781  -719.796  -731.317  -745.213  -753.383  -753.677  -784.384  -800.256  -844.113  -858.908  -882.597  -907.054  -908.675  -948.631  -994  -1009.94  -1051.42  -1078.57  -1122.91  -1180.28  -1243.69  -1260.53  -1369.41  -1453.13  -1671.57  
11  0.00248717  0.00430791   2.90931  -2.90931  -0.0225804  -1.61377  -33.1116  -33.2135  -38.9914  -39.1357  -59.1061  -67.7036  -67.7389  -73.3023  -73.3038  -82.0124  -87.9761  -100.642  -102.34  -102.53  -118.876  -119.909  -126.302  -130.216  -136.864  -138.218  -141.933  -142.001  -143.432  -161.391  -161.66  -169.971  -170.044  -179.59  -186.403  -199.027  -201.449  -202.628  -207.562  -208.679  -211.127  -213.574  -218.69  -219.164  -228.551  -229.585  -239.136  -243.519  -250.903  -251.283  -256.497  -256.682  -259.049  -281.115  -281.757  -288.359  -289.006  -299.536  -300.823  -301.388  -309.991  -311.83  -313.515  -315.673  -319.812  -321.581  -331.352  -333.211  -337.211  -337.758  -345.148  -350.417  -354.109  -357.643  -359.248  -360.583  -376.634  -380.146  -384.68  -389.038  -396.957  -399.773  -405.79  -415.016  -421.057  -423.383  -425.044  -430.226  -435.925  -440.609  -444.971  -446.928  -454.093  -455.065  -461.794  -465.288  -472.72  -479.193  -480.354  -494.299  -494.475  -503.826  -511.635  -521.223  -524.645  -529.611  -536.915  -538.251  -565.887  -567.28  -569.639  -577.777  -592.015  -594.582  -599.268  -613.864  -622.604  -633.203  -636.4  -640.554  -651.118  -659.41  -682.988  -699.687  -734.605  -740.3  -745.459  -755.918  -768.096  -769.072  -814.842  -828.949  -873.834  -891.792  -896.68  -925.362  -965.201  -976.838  -1026.52  -1061.43  -1067.8  -1141.45  -1198.71  -1241.59  -1262.08  -1389.79  -1473.44  -1693.73  
12  0  0   3  -3  0  -1.64118  -33.1456  -33.1457  -39.0645  -39.0648  -59.0149  -68.2701  -68.2707  -72.7565  -72.7576  -82.0951  -87.7339  -100.544  -102.456  -102.456  -119.828  -119.828  -125.874  -131.517  -138.5  -138.504  -140.835  -140.84  -141.337  -162.26  -162.275  -169.298  -169.328  -179.122  -186.807  -199.537  -203.733  -203.763  -209.952  -210.121  -212.998  -213.457  -213.55  -214.126  -229.413  -229.452  -239.089  -246.758  -252.658  -252.762  -253.312  -253.328  -257.281  -284.668  -284.867  -286.042  -286.355  -298.029  -308.576  -310.133  -310.461  -310.663  -311.728  -312.161  -312.795  -318.607  -333.113  -333.115  -344.377  -344.934  -345.289  -346.063  -350.162  -351.034  -358.078  -359.7  -383.385  -383.476  -388.006  -390.201  -392.429  -396.295  -397.788  -422.939  -427.501  -430.182  -433.109  -434.283  -435.62  -435.833  -437.431  -443.029  -448.6  -465.148  -469.14  -472.341  -473.037  -473.762  -485.403  -492.644  -498.314  -505.285  -516.703  -518.801  -522.391  -527.767  -531.269  -548.797  -576.681  -578.848  -580.402  -580.691  -581.704  -582.712  -602.909  -612.274  -623.329  -632.12  -632.857  -653.496  -663.327  -665.065  -686.76  -695.729  -727.243  -749.574  -753.953  -758.839  -767.899  -783.012  -813.991  -829.658  -876.777  -888.721  -911.294  -942.222  -959.88  -981.979  -1043.25  -1044.51  -1084.49  -1160.18  -1217.35  -1222.87  -1280.72  -1410.36  -1493.97  -1716.1  
