#index kx_value ky_value E0(k)  E1(k)   E2(k) .....
0  0  0   3  -3  0  -35.4728  -64.4511  -64.4511  -92.5283  -92.5283  -149.347  -200.376  -200.376  -204.337  -204.337  -207.318  -230.718  -261.57  -283.243  -283.243  -324.186  -324.187  -367.933  -432.188  -435.978  -435.978  -442.194  -442.195  -444.543  -498.889  -498.893  -499.662  -501.839  -501.841  -508.947  -601.354  -609.605  -609.606  -626.482  -626.495  -637.063  -762.619  -763.241  -763.263  -764.625  -764.649  -765.423  -830.991  -834.107  -834.122  -840.803  -840.807  -844.571  -879.214  -882.278  -882.31  -887.722  -887.748  -890.395  -1043.65  -1045.3  -1045.31  -1048.65  -1048.68  -1050.38  -1185.71  -1185.89  -1185.97  -1186.21  -1186.88  -1186.94  -1243.94  -1244.53  -1244.62  -1245.3  -1249.56  -1249.68  -1344.89  -1347.48  -1347.97  -1353.48  -1355.04  -1361.11  -1363.2  -1369.12  -1369.57  -1373.35  -1379.8  -1380.62  -1604.24  -1604.64  -1611.09  -1611.3  -1611.76  -1611.95  -1698.19  -1698.27  -1699.26  -1699.27  -1771.54  -1771.64  -1774.13  -1774.16  -1816.84  -1816.89  -1824.65  -1824.66  -1972.5  -1974.68  -1984.62  -1987.79  -1988.75  -1989.48  -1992.61  -1992.89  -2294.17  -2294.22  -2307.41  -2307.44  -2365.55  -2365.65  -2472.54  -2480.11  -2488.57  -2496.42  -2730.8  -2731.19  -3006.79  -3006.92  -3079.84  -3088.26  -3124.79  -3136.35  -3292.16  -3295.29  -3803.1  -3808.33  -3861.01  -3884.04  -3975.05  -3991.28  -4689.58  -4719.97  -4770.46  -4818.39  -5677.85  -5753.1  -6776.07  
1  0  0.0266251   2.53209  -2.53209  -1.62613  -29.4468  -62.0427  -70.001  -94.4782  -99.3608  -150.7  -171.562  -182.563  -197.063  -223.319  -232.298  -241.758  -253.019  -275.722  -298.258  -323.005  -339.233  -378.753  -386.628  -408.238  -408.546  -443.954  -466.992  -468.231  -475.588  -478.09  -502.945  -534.395  -535.967  -552.124  -565.375  -569.26  -621.214  -622.648  -673.621  -683.342  -690.842  -723.332  -723.547  -756.832  -791.195  -793.663  -805.842  -806.434  -806.919  -849.205  -851.419  -851.61  -876.698  -876.942  -920.715  -934.296  -937.284  -965.554  -968.965  -970.362  -1049.52  -1049.57  -1084.56  -1130.01  -1133.32  -1134.2  -1135.19  -1143.37  -1196.01  -1200.64  -1237.99  -1238.04  -1248.88  -1264.47  -1282.56  -1289.46  -1292.89  -1299.7  -1299.72  -1339.87  -1347.76  -1355.3  -1385.28  -1385.44  -1441.8  -1443.37  -1465.05  -1484.28  -1503.28  -1510.54  -1577.03  -1606.77  -1614.15  -1636.89  -1652.01  -1702.74  -1705.71  -1716.68  -1717.29  -1761.55  -1762.45  -1763.89  -1830.27  -1833.37  -1859.46  -1869.81  -1881.74  -1888.43  -1895.36  -1958.95  -2010.18  -2010.42  -2091.36  -2096.24  -2172.38  -2234.81  -2294.8  -2297.67  -2380.27  -2380.6  -2440.95  -2441.76  -2534.03  -2593.47  -2609.34  -2712.08  -2924.67  -2993.1  -3051.02  -3091.16  -3168.48  -3172.67  -3228  -3253.61  -3709.73  -3770.98  -3862.84  -3902.71  -3922.28  -3981.18  -4586.86  -4663.76  -4723.17  -4826.11  -5564.5  -5642.58  -6653.76  
2  0  0.0532502   1.3473  -1.3473  -6.1409  -19.6979  -57.6438  -79.599  -97.1805  -118.03  -136.852  -162.168  -164.374  -192.022  -216.062  -248.407  -254.019  -259.082  -298.826  -312.467  -325.502  -329.701  -377.049  -377.401  -378.954  -392.118  -425.541  -449.524  -454.882  -501.413  -502.712  -505.264  -521.325  -567.048  -574.322  -577.638  -607.455  -632.334  -632.804  -635.323  -679.313  -684.575  -686.933  -728.228  -740.784  -747.629  -748.668  -757.945  -831.683  -831.828  -851.065  -851.096  -891.198  -894.647  -913.033  -913.054  -939.154  -987.754  -995.026  -997.352  -1015.28  -1046.66  -1057.21  -1057.4  -1059.8  -1083.34  -1084.52  -1149.77  -1153.39  -1157.7  -1169.96  -1211.46  -1219.41  -1220.15  -1222.7  -1290.76  -1290.8  -1324.8  -1332.41  -1360.1  -1360.18  -1403.61  -1406.85  -1414.3  -1418.4  -1418.43  -1459.45  -1465.75  -1531.38  -1532.09  -1534.53  -1574.19  -1577.08  -1585.54  -1594.09  -1613.8  -1621.61  -1638.82  -1723.33  -1743.83  -1752.82  -1784.67  -1825.66  -1826.12  -1827.79  -1828.31  -1887.85  -1891.59  -1945.25  -1972.51  -1978.35  -2039.16  -2039.96  -2055.22  -2163.01  -2201.29  -2205.98  -2231.6  -2289.59  -2303.19  -2404.98  -2453.85  -2492.46  -2523.41  -2588.47  -2697.87  -2702.18  -2844.16  -2905.27  -2989.76  -3056.93  -3177.47  -3218.26  -3248  -3332.16  -3617.13  -3686.47  -3751.17  -3864.91  -3999.19  -4085.47  -4486.19  -4556.35  -4640.46  -4936.87  -5453.24  -5539.21  -6536.06  
3  0  0.0798753   0  -0  -12.1393  -12.1393  -55.452  -91.0895  -91.0895  -126.778  -135.784  -154.883  -154.883  -200.608  -200.608  -250.511  -270.448  -276.495  -276.495  -332.936  -332.936  -347.415  -349.959  -349.959  -361.849  -420.099  -430.287  -430.288  -471.379  -471.396  -489.638  -536.058  -536.059  -536.736  -608.599  -611.138  -611.147  -644.517  -644.561  -647.102  -659.359  -659.378  -660.386  -706.568  -706.593  -707.249  -811.8  -814.17  -814.216  -829.629  -829.659  -832.428  -895.523  -895.582  -895.638  -954.583  -954.607  -954.661  -1033.47  -1033.57  -1034.69  -1060.19  -1061.08  -1061.17  -1076.81  -1076.87  -1077.97  -1108.38  -1108.61  -1111.58  -1153.67  -1153.77  -1163.46  -1313.4  -1313.57  -1316.65  -1316.82  -1320.4  -1325.09  -1345.4  -1345.45  -1346.6  -1418.9  -1418.92  -1421.72  -1464.31  -1464.39  -1472.98  -1518.13  -1518.94  -1576.46  -1580.81  -1624.11  -1625.43  -1627.33  -1631.62  -1634.17  -1640.37  -1684.34  -1688.83  -1700.29  -1708.78  -1891.99  -1892.68  -1935.79  -1941.46  -1942.04  -1942.76  -1950.69  -1954.72  -2060.38  -2061.56  -2078.35  -2081.15  -2092.81  -2166.04  -2211.18  -2314.28  -2315.99  -2320.56  -2374.2  -2380.75  -2529.09  -2605.94  -2653.52  -2688.34  -2764.39  -2816.24  -2822.45  -2932.22  -2950.06  -3187.69  -3265.3  -3332.2  -3443.97  -3526.18  -3602.79  -3650.17  -3812.88  -4098.37  -4196.29  -4387.03  -4453.65  -4565.39  -5052.25  -5344.67  -5442.38  -6422.98  
4  0.023058  0.0665628   0.879385  -0.879385  -8.17726  -16.6411  -57.842  -77.6732  -104.79  -123.347  -132.524  -143.592  -175.331  -199.344  -207.015  -231.305  -260.751  -294.634  -296.817  -304.23  -323.513  -326.227  -358.607  -375.299  -391.487  -404.084  -408.273  -454.833  -463.322  -470.369  -485.009  -532.936  -544.735  -571.429  -571.941  -591.813  -608.394  -609.576  -641.22  -641.791  -672.141  -672.517  -699.097  -703.085  -725.811  -755.024  -758.64  -784.692  -808.077  -817.885  -818.002  -867.27  -891.146  -907.892  -940.641  -940.764  -973.104  -985.033  -986.795  -991.58  -1002.7  -1002.77  -1055.48  -1055.58  -1086.34  -1086.4  -1115.31  -1115.38  -1133.47  -1146.67  -1148.1  -1210.13  -1227.92  -1228.13  -1237.58  -1261.93  -1310.36  -1310.4  -1310.7  -1356.17  -1401.41  -1402.43  -1419.14  -1423.72  -1459.42  -1460.32  -1470.64  -1474.1  -1515.28  -1518.04  -1522.22  -1526  -1528.92  -1536.67  -1605.91  -1612.41  -1641.71  -1647.16  -1668.62  -1674.47  -1732.05  -1737.7  -1763.48  -1823.83  -1828.68  -1834.61  -1932.63  -1937.52  -1937.79  -1952.35  -1957.95  -2019.3  -2024.55  -2093.19  -2103.93  -2151.25  -2171.34  -2185.68  -2191.72  -2266.72  -2332.67  -2354.12  -2559.54  -2606.18  -2675.69  -2684.9  -2740.7  -2746.05  -2830.56  -2854.41  -2897.76  -3059.09  -3350.58  -3421.04  -3437.09  -3505.19  -3506.45  -3571.2  -3684.94  -4193.06  -4279.28  -4285.38  -4355.58  -4439.69  -5151.47  -5231.66  -5317.67  -6293.75  
5  0.023058  0.0399377   1.73205  -1.73205  -4.61903  -22.3124  -60.1226  -73.4865  -102.202  -108.555  -145.729  -152.23  -174.808  -206.723  -211.845  -223.96  -265.249  -274.257  -277.937  -294.389  -345.94  -346.338  -355.417  -356.577  -409.5  -418.775  -422.911  -438.737  -439.565  -504.101  -508.748  -511.478  -535.569  -539.309  -569.523  -572.917  -597.263  -605.018  -644.046  -646.371  -685.982  -687.342  -710.478  -719.629  -748.321  -764.304  -764.51  -774.79  -775.703  -828.113  -828.167  -889.866  -893.279  -894.14  -912.464  -912.566  -962.235  -965.194  -972.823  -972.947  -1017  -1027.61  -1034.84  -1035.4  -1096.32  -1097.78  -1136.57  -1136.61  -1175.19  -1184.74  -1185.8  -1188.08  -1218.66  -1240.53  -1240.79  -1254.59  -1258.2  -1312.6  -1320.92  -1346.38  -1347.33  -1404.48  -1407.84  -1411.99  -1426.66  -1433.55  -1493.26  -1499.93  -1507.87  -1514.41  -1517.06  -1518.65  -1548.38  -1564.52  -1585.77  -1589.22  -1644.04  -1651.57  -1700.2  -1721.54  -1722.24  -1753.58  -1764.92  -1770.1  -1825.04  -1839.3  -1851.89  -1852.53  -1890.75  -1912.73  -1959.43  -2017.55  -2052.62  -2079.46  -2094.04  -2139.49  -2155.28  -2176.72  -2220.42  -2239.91  -2300.29  -2468.69  -2530.28  -2571.43  -2591.73  -2683.94  -2743.38  -2763.11  -2831.56  -2889.51  -3011.19  -3092.13  -3261.96  -3339.22  -3398.72  -3527.39  -3588.65  -3680.55  -3740  -4094.27  -4172.68  -4383.73  -4460.68  -4520.1  -5038.4  -5340.61  -5418.73  -6409.13  
6  0.015372  0.0266251   2.38633  -2.38633  -2.15047  -27.9348  -61.8061  -70.6148  -96.3782  -100.544  -150.675  -167.278  -177.592  -206.12  -211.891  -237.037  -245.188  -257.027  -275.86  -295.536  -329.99  -340.295  -375.463  -383.013  -391.893  -436.285  -436.926  -445.672  -447.607  -498.153  -501.996  -507.919  -509.7  -539.246  -562.808  -569.625  -582.124  -586.384  -660.228  -662.806  -682.56  -684.516  -705.259  -750.778  -759.281  -764.726  -765.125  -806.657  -808.776  -832.517  -832.619  -848.92  -849.937  -897.587  -897.795  -920.091  -923.964  -940.522  -969.058  -978.285  -995.61  -995.749  -1084.08  -1084.56  -1105.06  -1105.13  -1143.91  -1145.14  -1159.91  -1185.3  -1186.27  -1231.72  -1244.7  -1249.17  -1253.35  -1279.54  -1280.08  -1291.83  -1292.76  -1325.45  -1332.9  -1351.79  -1356.38  -1402.32  -1409.49  -1446.79  -1452.91  -1469.57  -1483.81  -1499.57  -1538.57  -1545.6  -1576.11  -1577.21  -1647.24  -1650.3  -1683.19  -1683.75  -1698.75  -1699.91  -1706.49  -1752.3  -1768.56  -1825.32  -1825.35  -1838.14  -1841.91  -1883.87  -1896.39  -1897.24  -1935.45  -1947.78  -2048.45  -2086.78  -2131.6  -2140.81  -2164.08  -2214.04  -2223.94  -2317.53  -2359.61  -2454.94  -2514.61  -2554.57  -2616.1  -2623.07  -2657.63  -2843.1  -2913.88  -2965.06  -3103.76  -3157.78  -3175.67  -3255  -3308.49  -3618.22  -3677.68  -3778.81  -3820.33  -3997.72  -4074.62  -4484.41  -4563.37  -4616.75  -4930.72  -5451.79  -5528.34  -6529.9  
7  0.00768601  0.0133126   2.83975  -2.83975  -0.54801  -33.1272  -63.6111  -66.5845  -93.345  -94.728  -150.14  -184.274  -189.048  -205.597  -209.862  -223.831  -238.825  -252.21  -280.749  -290.515  -323.682  -328.831  -374.971  -404.754  -411.698  -438.589  -438.611  -467.645  -471.095  -473  -473.525  -502.438  -503.462  -530.296  -536.098  -573.521  -597.539  -603.882  -635.71  -640.712  -665.475  -722.284  -723.932  -764.079  -764.153  -792.224  -800.179  -805.449  -806.636  -834.112  -834.837  -845.02  -848.132  -875.364  -879.824  -889.74  -890.726  -924.177  -931.61  -992.769  -1020.38  -1020.61  -1075.1  -1075.28  -1102.81  -1134.41  -1134.82  -1185.79  -1186.67  -1193.18  -1194.26  -1238.34  -1239.27  -1245.89  -1250.55  -1289.51  -1297.32  -1301.69  -1302.14  -1319.01  -1320.75  -1341.73  -1347.89  -1380.06  -1386.65  -1402.31  -1406.96  -1422.61  -1437.08  -1536.22  -1570.73  -1577.78  -1636.52  -1637.61  -1646.61  -1646.84  -1681.12  -1699.42  -1709.3  -1712.05  -1756.24  -1761.19  -1764.09  -1772.39  -1828.38  -1833.91  -1880.77  -1898.66  -1915.25  -1929.32  -1943.59  -1960.74  -2019.1  -2035.63  -2062.79  -2212.12  -2235.19  -2253.44  -2293.79  -2380.67  -2396.11  -2421.34  -2439.23  -2549.17  -2574.3  -2642  -2676.25  -2924.32  -2996.77  -3043.37  -3090.65  -3171.44  -3197.88  -3220.94  -3225.04  -3710.14  -3768.45  -3878  -3902.41  -3903.09  -3978.4  -4586.35  -4666.73  -4716.09  -4824.57  -5564.2  -5639.79  -6652.22  
8  0  0   3  -3  0  -35.4728  -64.4511  -64.4511  -92.5283  -92.5283  -149.347  -200.376  -200.376  -204.337  -204.337  -207.318  -230.718  -261.57  -283.243  -283.243  -324.186  -324.187  -367.933  -432.188  -435.978  -435.978  -442.194  -442.195  -444.543  -498.889  -498.893  -499.662  -501.839  -501.841  -508.947  -601.354  -609.605  -609.606  -626.482  -626.495  -637.063  -762.619  -763.241  -763.263  -764.625  -764.649  -765.423  -830.991  -834.107  -834.122  -840.803  -840.807  -844.571  -879.214  -882.278  -882.31  -887.722  -887.748  -890.395  -1043.65  -1045.3  -1045.31  -1048.65  -1048.68  -1050.38  -1185.71  -1185.89  -1185.97  -1186.21  -1186.88  -1186.94  -1243.94  -1244.53  -1244.62  -1245.3  -1249.56  -1249.68  -1344.89  -1347.48  -1347.97  -1353.48  -1355.04  -1361.11  -1363.2  -1369.12  -1369.57  -1373.35  -1379.8  -1380.62  -1604.24  -1604.64  -1611.09  -1611.3  -1611.76  -1611.95  -1698.19  -1698.27  -1699.26  -1699.27  -1771.54  -1771.64  -1774.13  -1774.16  -1816.84  -1816.89  -1824.65  -1824.66  -1972.5  -1974.68  -1984.62  -1987.79  -1988.75  -1989.48  -1992.61  -1992.89  -2294.17  -2294.22  -2307.41  -2307.44  -2365.55  -2365.65  -2472.54  -2480.11  -2488.57  -2496.42  -2730.8  -2731.19  -3006.79  -3006.92  -3079.84  -3088.26  -3124.79  -3136.35  -3292.16  -3295.29  -3803.1  -3808.33  -3861.01  -3884.04  -3975.05  -3991.28  -4689.58  -4719.97  -4770.46  -4818.39  -5677.85  -5753.1  -6776.07  
